pressure[torr]       = 30
temperature[K]       = 2000
energy step[1/cm]    = 139
maximum energy[1/cm] = 57404

Bimolecular-to-bimolecular product energy distributions:
  E, kcal/mol       P1->P2
      164.124  3.49932e-09
      163.727  3.78397e-09
      163.329  4.09158e-09
      162.932  4.42397e-09
      162.535  4.78311e-09
      162.137  5.17115e-09
       161.74  5.59038e-09
      161.342  6.04329e-09
      160.945  6.53256e-09
      160.547  7.06107e-09
       160.15  7.63194e-09
      159.753  8.24853e-09
      159.355  8.91447e-09
      158.958  9.63365e-09
       158.56  1.04103e-08
      158.163   1.1249e-08
      157.766  1.21546e-08
      157.368  1.31323e-08
      156.971   1.4188e-08
      156.573  1.53277e-08
      156.176   1.6558e-08
      155.778  1.78861e-08
      155.381  1.93197e-08
      154.984   2.0867e-08
      154.586  2.25369e-08
      154.189  2.43392e-08
      153.791  2.62841e-08
      153.394  2.83828e-08
      152.997  3.06473e-08
      152.599  3.30906e-08
      152.202  3.57266e-08
      151.804  3.85704e-08
      151.407  4.16382e-08
      151.009  4.49473e-08
      150.612  4.85165e-08
      150.215  5.23662e-08
      149.817  5.65179e-08
       149.42  6.09951e-08
      149.022  6.58231e-08
      148.625  7.10289e-08
      148.228  7.66419e-08
       147.83  8.26934e-08
      147.433  8.92172e-08
      147.035  9.62498e-08
      146.638   1.0383e-07
       146.24  1.12001e-07
      145.843  1.20807e-07
      145.446  1.30297e-07
      145.048  1.40524e-07
      144.651  1.51545e-07
      144.253  1.63419e-07
      143.856  1.76212e-07
      143.459  1.89994e-07
      143.061  2.04841e-07
      142.664  2.20834e-07
      142.266   2.3806e-07
      141.869  2.56613e-07
      141.471  2.76593e-07
      141.074   2.9811e-07
      140.677  3.21279e-07
      140.279  3.46225e-07
      139.882  3.73083e-07
      139.484  4.01997e-07
      139.087  4.33123e-07
       138.69  4.66627e-07
      138.292  5.02687e-07
      137.895  5.41497e-07
      137.497  5.83263e-07
        137.1  6.28206e-07
      136.702  6.76565e-07
      136.305  7.28594e-07
      135.908  7.84569e-07
       135.51  8.44783e-07
      135.113  9.09554e-07
      134.715   9.7922e-07
      134.318  1.05414e-06
      133.921  1.13472e-06
      133.523  1.22136e-06
      133.126  1.31453e-06
      132.728  1.41469e-06
      132.331  1.52237e-06
      131.933  1.63812e-06
      131.536  1.76255e-06
      131.139  1.89627e-06
      130.741  2.03999e-06
      130.344  2.19443e-06
      129.946  2.36038e-06
      129.549  2.53869e-06
      129.152  2.73025e-06
      128.754  2.93603e-06
      128.357  3.15707e-06
      127.959  3.39448e-06
      127.562  3.64945e-06
      127.164  3.92325e-06
      126.767  4.21726e-06
       126.37  4.53293e-06
      125.972  4.87183e-06
      125.575  5.23563e-06
      125.177  5.62613e-06
       124.78  6.04525e-06
      124.383  6.49505e-06
      123.985  6.97773e-06
      123.588  7.49564e-06
       123.19  8.05129e-06
      122.793   8.6474e-06
      122.396  9.28683e-06
      121.998  9.97268e-06
      121.601  1.07082e-05
      121.203   1.1497e-05
      120.806  1.23428e-05
      120.408  1.32497e-05
      120.011  1.42219e-05
      119.614   1.5264e-05
      119.216   1.6381e-05
      118.819  1.75782e-05
      118.421  1.88611e-05
      118.024  2.02358e-05
      117.627  2.17086e-05
      117.229  2.32864e-05
      116.832  2.49765e-05
      116.434  2.67868e-05
      116.037  2.87255e-05
      115.639  3.08016e-05
      115.242  3.30245e-05
      114.845  3.54044e-05
      114.447   3.7952e-05
       114.05   4.0679e-05
      113.652  4.35975e-05
      113.255  4.67207e-05
      112.858  5.00627e-05
       112.46  5.36382e-05
      112.063  5.74633e-05
      111.665  6.15547e-05
      111.268  6.59307e-05
       110.87  7.06104e-05
      110.473  7.56143e-05
      110.076  8.09642e-05
      109.678  8.66835e-05
      109.281  9.27968e-05
      108.883  9.93306e-05
      108.486  0.000106313
      108.089  0.000113773
      107.691  0.000121744
      107.294  0.000130259
      106.896  0.000139354
      106.499  0.000149066
      106.101  0.000159438
      105.704  0.000170512
      105.307  0.000182335
      104.909  0.000194954
      104.512  0.000208423
      104.114  0.000222796
      103.717  0.000238132
       103.32  0.000254493
      102.922  0.000271946
      102.525  0.000290561
      102.127  0.000310412
       101.73  0.000331579
      101.332  0.000354145
      100.935  0.000378201
      100.538   0.00040384
       100.14  0.000431162
      99.7428  0.000460275
      99.3454  0.000491291
       98.948  0.000524329
      98.5506  0.000559516
      98.1531  0.000596986
      97.7557  0.000636882
      97.3583  0.000679354
      96.9609  0.000724561
      96.5635  0.000772672
      96.1661  0.000823866
      95.7686  0.000878332
      95.3712  0.000936269
      94.9738  0.000997888
      94.5764   0.00106341
       94.179   0.00113308
      93.7816   0.00120715
      93.3842   0.00128586
      92.9867   0.00136952
      92.5893    0.0014584
      92.1919   0.00155282
      91.7945   0.00165311
      91.3971   0.00175962
      90.9997   0.00187271
      90.6022   0.00199276
      90.2048   0.00212018
      89.8074   0.00225541
        89.41   0.00239888
      89.0126   0.00255109
      88.6152   0.00271252
      88.2177    0.0028837
      87.8203    0.0030652
      87.4229   0.00325759
      87.0255    0.0034615
      86.6281   0.00367756
      86.2307   0.00390645
      85.8332    0.0041489
      85.4358   0.00440565
      85.0384    0.0046775
       84.641   0.00496526
      84.2436   0.00526981
      83.8462   0.00559206
      83.4488   0.00593297
      83.0513   0.00629354
      82.6539   0.00667483
      82.2565   0.00707793
      81.8591     0.007504
      81.4617   0.00795426
      81.0643   0.00842996
      80.6668   0.00893243
      80.2694   0.00946306
       79.872    0.0100233
      79.4746    0.0106146
      79.0772    0.0112387
      78.6798    0.0118971
      78.2823    0.0125916
      77.8849    0.0133239
      77.4875     0.014096
      77.0901    0.0149097
      76.6927    0.0157672
      76.2953    0.0166706
      75.8979     0.017622
      75.5004    0.0186237
       75.103    0.0196782
      74.7056    0.0207879
      74.3082    0.0219554
      73.9108    0.0231833
      73.5134    0.0244745
      73.1159    0.0258317
      72.7185     0.027258
      72.3211    0.0287565
      71.9237    0.0303304
      71.5263    0.0319828
      71.1289    0.0337174
      70.7314    0.0355375
       70.334    0.0374468
      69.9366    0.0394491
      69.5392    0.0415482
      69.1418    0.0437481
      68.7444    0.0460529
       68.347    0.0484668
      67.9495     0.050994
      67.5521    0.0536392
      67.1547    0.0564067
      66.7573    0.0593013
      66.3599    0.0623277
      65.9625    0.0654908
       65.565    0.0687955
      65.1676     0.072247
      64.7702    0.0758503
      64.3728    0.0796108
      63.9754    0.0835338
       63.578    0.0876246
      63.1805    0.0918889
      62.7831     0.096332
      62.3857      0.10096
      61.9883     0.105778
      61.5909     0.110791
      61.1935     0.116007
       60.796     0.121429
      60.3986     0.127065
      60.0012     0.132919
      59.6038     0.138998
      59.2064     0.145307
       58.809     0.151852
      58.4116     0.158637
      58.0141     0.165669
      57.6167     0.172953
      57.2193     0.180494
      56.8219     0.188297
      56.4245     0.196366
      56.0271     0.204706
      55.6296     0.213322
      55.2322     0.222218
      54.8348     0.231396
      54.4374     0.240862
        54.04     0.250617
      53.6426     0.260664
      53.2451     0.271006
      52.8477     0.281644
      52.4503     0.292579
      52.0529     0.303813
      51.6555     0.315345
      51.2581     0.327175
      50.8607     0.339301
      50.4632     0.351722
      50.0658     0.364435
      49.6684     0.377437
       49.271     0.390723
      48.8736     0.404288
      48.4762     0.418127
      48.0787     0.432232
      47.6813     0.446595
      47.2839     0.461207
      46.8865     0.476059
      46.4891     0.491139
      46.0917     0.506434
      45.6942     0.521931
      45.2968     0.537616
      44.8994     0.553471
       44.502     0.569481
      44.1046     0.585625
      43.7072     0.601885
      43.3098     0.618239
      42.9123     0.634664
      42.5149     0.651136
      42.1175     0.667629
      41.7201     0.684118
      41.3227     0.700573
      40.9253     0.716965
      40.5278     0.733264
      40.1304     0.749436
       39.733     0.765449
      39.3356     0.781268
      38.9382     0.796856
      38.5408     0.812177
      38.1433     0.827193
      37.7459     0.841864
      37.3485     0.856151
      36.9511     0.870013
      36.5537     0.883409
      36.1563     0.896295
      35.7589     0.908631
      35.3614     0.920373
       34.964     0.931478
      34.5666     0.941903
      34.1692     0.951605
      33.7718     0.960543
      33.3744     0.968674
      32.9769     0.975957
      32.5795     0.982352
      32.1821      0.98782
      31.7847     0.992324
      31.3873     0.995827
      30.9899     0.998295
      30.5924     0.999696
       30.195            1
      29.7976     0.999181
      29.4002     0.997213
      29.0028     0.994077
      28.6054     0.989754
      28.2079      0.98423
      27.8105     0.977493
      27.4131     0.969538
      27.0157     0.960361
      26.6183     0.949965
      26.2209     0.938356
      25.8235     0.925545
       25.426     0.911549
      25.0286     0.896391
      24.6312     0.880095
      24.2338     0.862694
      23.8364     0.844223
       23.439     0.824725
      23.0415     0.804245
      22.6441     0.782834
      22.2467     0.760551
      21.8493     0.737456
      21.4519     0.713619
      21.0545      0.68911
       20.657     0.664007
      20.2596     0.638387
      19.8622     0.612331
      19.4648     0.585925
      19.0674     0.559253
        18.67     0.532403
      18.2726     0.505469
      17.8751     0.478544
      17.4777     0.451726
      17.0803     0.425109
      16.6829     0.398788
      16.2855     0.372852
      15.8881     0.347386
      15.4906      0.32247
      15.0932     0.298182
      14.6958     0.274596
      14.2984     0.251787
       13.901     0.229827
      13.5036     0.208786
      13.1061     0.188721
      12.7087     0.169682
      12.3113     0.151702
      11.9139     0.134803
      11.5165     0.118999
      11.1191     0.104297
      10.7217    0.0907037
      10.3242     0.078223
      9.92682    0.0668567
       9.5294    0.0565975
      9.13199    0.0474244
      8.73457    0.0392995
      8.33716    0.0321684
      7.93974    0.0259649
      7.54232    0.0206175
      7.14491    0.0160576
      6.74749    0.0122231
      6.35008   0.00905847
      5.95266   0.00650992
      5.55524   0.00451964
      5.15783    0.0030216
      4.76041   0.00194071
        4.363   0.00119599
      3.96558  0.000706668
      3.56817  0.000399878
      3.17075  0.000216087
      2.77333  0.000110849
      2.37592  5.34524e-05
       1.9785  2.38603e-05
      1.58109  9.58147e-06
      1.18367  3.30908e-06
     0.786254  8.95176e-07
     0.388839  1.23865e-07
     0.0	1e-7
     -0.2  1e-8
     -0.4  1e-9
     -0.6  1e-10

