pressure[torr]       = 30
temperature[K]       = 1000
energy step[1/cm]    = 70
maximum energy[1/cm] = 27802

Bimolecular-to-bimolecular product energy distributions:
  E, kcal/mol       P0->P1
      79.4889  1.24168e-09
      79.2888  1.34405e-09
      79.0886   1.4548e-09
      78.8885   1.5746e-09
      78.6883  1.70418e-09
      78.4882  1.84434e-09
      78.2881  1.99593e-09
      78.0879  2.15987e-09
      77.8878  2.33716e-09
      77.6877  2.52889e-09
      77.4875  2.73621e-09
      77.2874  2.96038e-09
      77.0872  3.20276e-09
      76.8871   3.4648e-09
       76.687  3.74811e-09
      76.4868  4.05437e-09
      76.2867  4.38544e-09
      76.0866   4.7433e-09
      75.8864   5.1301e-09
      75.6863  5.54816e-09
      75.4861  5.99998e-09
       75.286  6.48826e-09
      75.0859  7.01592e-09
      74.8857  7.58609e-09
      74.6856  8.20217e-09
      74.4855  8.86781e-09
      74.2853  9.58697e-09
      74.0852  1.03639e-08
       73.885  1.12032e-08
      73.6849  1.21098e-08
      73.4848  1.30891e-08
      73.2846  1.41468e-08
      73.0845  1.52892e-08
      72.8844  1.65228e-08
      72.6842  1.78551e-08
      72.4841  1.92937e-08
      72.2839  2.08471e-08
      72.0838  2.25243e-08
      71.8837  2.43351e-08
      71.6835  2.62899e-08
      71.4834  2.84002e-08
      71.2833  3.06782e-08
      71.0831  3.31369e-08
       70.883  3.57907e-08
      70.6828  3.86548e-08
      70.4827  4.17457e-08
      70.2826   4.5081e-08
      70.0824  4.86801e-08
      69.8823  5.25634e-08
      69.6822  5.67531e-08
       69.482  6.12731e-08
      69.2819  6.61492e-08
      69.0817  7.14091e-08
      68.8816  7.70826e-08
      68.6815  8.32018e-08
      68.4813  8.98013e-08
      68.2812  9.69183e-08
      68.0811  1.04593e-07
      67.8809  1.12869e-07
      67.6808  1.21791e-07
      67.4806  1.31411e-07
      67.2805  1.41782e-07
      67.0804  1.52962e-07
      66.8802  1.65012e-07
      66.6801  1.78001e-07
        66.48     1.92e-07
      66.2798  2.07087e-07
      66.0797  2.23344e-07
      65.8795  2.40863e-07
      65.6794  2.59738e-07
      65.4793  2.80075e-07
      65.2791  3.01983e-07
       65.079  3.25584e-07
      64.8789  3.51006e-07
      64.6787  3.78388e-07
      64.4786  4.07878e-07
      64.2784  4.39637e-07
      64.0783  4.73836e-07
      63.8782  5.10661e-07
       63.678   5.5031e-07
      63.4779  5.92996e-07
      63.2778  6.38949e-07
      63.0776  6.88416e-07
      62.8775  7.41659e-07
      62.6773  7.98964e-07
      62.4772  8.60635e-07
      62.2771  9.27001e-07
      62.0769  9.98412e-07
      61.8768  1.07525e-06
      61.6767  1.15791e-06
      61.4765  1.24683e-06
      61.2764  1.34246e-06
      61.0762  1.44531e-06
      60.8761   1.5559e-06
       60.676  1.67481e-06
      60.4758  1.80266e-06
      60.2757  1.94011e-06
      60.0756  2.08788e-06
      59.8754  2.24673e-06
      59.6753  2.41748e-06
      59.4751    2.601e-06
       59.275  2.79824e-06
      59.0749  3.01019e-06
      58.8747  3.23794e-06
      58.6746  3.48265e-06
      58.4745  3.74555e-06
      58.2743  4.02797e-06
      58.0742  4.33133e-06
       57.874  4.65716e-06
      57.6739  5.00709e-06
      57.4738  5.38286e-06
      57.2736  5.78636e-06
      57.0735  6.21959e-06
      56.8734  6.68469e-06
      56.6732  7.18396e-06
      56.4731  7.71986e-06
      56.2729  8.29504e-06
      56.0728  8.91229e-06
      55.8727  9.57466e-06
      55.6725  1.02853e-05
      55.4724  1.10478e-05
      55.2723  1.18658e-05
      55.0721  1.27432e-05
       54.872  1.36842e-05
      54.6718  1.46934e-05
      54.4717  1.57756e-05
      54.2716   1.6936e-05
      54.0714  1.81801e-05
      53.8713  1.95137e-05
      53.6712  2.09433e-05
       53.471  2.24755e-05
      53.2709  2.41175e-05
      53.0707  2.58771e-05
      52.8706  2.77624e-05
      52.6705  2.97822e-05
      52.4703  3.19459e-05
      52.2702  3.42634e-05
      52.0701  3.67455e-05
      51.8699  3.94036e-05
      51.6698  4.22498e-05
      51.4696   4.5297e-05
      51.2695  4.85592e-05
      51.0694  5.20511e-05
      50.8692  5.57885e-05
      50.6691  5.97881e-05
       50.469  6.40679e-05
      50.2688   6.8647e-05
      50.0687  7.35457e-05
      49.8685  7.87858e-05
      49.6684  8.43903e-05
      49.4683   9.0384e-05
      49.2681  9.67931e-05
       49.068  0.000103645
      48.8679  0.000110971
      48.6677  0.000118801
      48.4676   0.00012717
      48.2674  0.000136114
      48.0673   0.00014567
      47.8672   0.00015588
       47.667  0.000166787
      47.4669  0.000178436
      47.2668  0.000190878
      47.0666  0.000204164
      46.8665  0.000218349
      46.6663  0.000233492
      46.4662  0.000249657
      46.2661  0.000266909
      46.0659   0.00028532
      45.8658  0.000304963
      45.6657  0.000325921
      45.4655  0.000348275
      45.2654  0.000372118
      45.0652  0.000397544
      44.8651  0.000424655
       44.665  0.000453558
      44.4648  0.000484368
      44.2647  0.000517204
      44.0646  0.000552197
      43.8644  0.000589481
      43.6643  0.000629201
      43.4641   0.00067151
       43.264   0.00071657
      43.0639  0.000764552
      42.8637  0.000815639
      42.6636  0.000870022
      42.4635  0.000927905
      42.2633  0.000989505
      42.0632   0.00105505
       41.863   0.00112478
      41.6629   0.00119895
      41.4628   0.00127784
      41.2626   0.00136172
      41.0625    0.0014509
      40.8624   0.00154569
      40.6622   0.00164645
      40.4621   0.00175351
      40.2619   0.00186727
      40.0618    0.0019881
      39.8617   0.00211645
      39.6615   0.00225273
      39.4614   0.00239743
      39.2613   0.00255104
      39.0611   0.00271406
       38.861   0.00288706
      38.6608    0.0030706
      38.4607    0.0032653
      38.2606   0.00347178
      38.0604   0.00369074
      37.8603   0.00392286
      37.6602   0.00416891
        37.46   0.00442965
      37.2599   0.00470593
      37.0597    0.0049986
      36.8596   0.00530858
      36.6595   0.00563682
      36.4593   0.00598433
      36.2592   0.00635216
      36.0591   0.00674143
      35.8589    0.0071533
      35.6588   0.00758898
      35.4586   0.00804976
      35.2585   0.00853698
      35.0584   0.00905203
      34.8582    0.0095964
      34.6581    0.0101716
       34.458    0.0107793
      34.2578    0.0114211
      34.0577    0.0120989
      33.8575    0.0128144
      33.6574    0.0135696
      33.4573    0.0143665
      33.2571    0.0152072
       33.057    0.0160938
      32.8569    0.0170288
      32.6567    0.0180144
      32.4566    0.0190532
      32.2564    0.0201477
      32.0563    0.0213006
      31.8562    0.0225148
       31.656    0.0237931
      31.4559    0.0251387
      31.2558    0.0265546
      31.0556    0.0280441
      30.8555    0.0296106
      30.6553    0.0312577
      30.4552     0.032989
      30.2551    0.0348082
      30.0549    0.0367194
      29.8548    0.0387265
      29.6547    0.0408338
      29.4545    0.0430456
      29.2544    0.0453663
      29.0542    0.0478006
      28.8541    0.0503533
       28.654    0.0530292
      28.4538    0.0558333
      28.2537    0.0587707
      28.0536    0.0618464
      27.8534    0.0650651
      27.6533     0.068431
      27.4531    0.0719477
       27.253     0.075619
      27.0529    0.0794503
      26.8527    0.0834472
      26.6526    0.0876147
      26.4525    0.0919579
      26.2523    0.0964832
      26.0522     0.101198
       25.852      0.10611
      25.6519     0.111226
      25.4518     0.116552
      25.2516     0.122096
      25.0515     0.127864
      24.8514     0.133862
      24.6512     0.140096
      24.4511     0.146573
      24.2509     0.153298
      24.0508     0.160278
      23.8507     0.167516
      23.6505     0.175015
      23.4504     0.182776
      23.2503     0.190803
      23.0501     0.199102
        22.85     0.207681
      22.6498     0.216547
      22.4497     0.225707
      22.2496     0.235166
      22.0494     0.244926
      21.8493     0.254993
      21.6492      0.26537
       21.449     0.276059
      21.2489     0.287063
      21.0487     0.298383
      20.8486     0.310021
      20.6485     0.321978
      20.4483     0.334253
      20.2482     0.346845
      20.0481     0.359755
      19.8479     0.372978
      19.6478     0.386512
      19.4476     0.400353
      19.2475     0.414492
      19.0474     0.428916
      18.8472     0.443604
      18.6471     0.458528
       18.447     0.473658
      18.2468     0.488982
      18.0467       0.5045
      17.8465     0.520214
      17.6464     0.536118
      17.4463       0.5522
      17.2461     0.568443
       17.046      0.58483
      16.8459      0.60134
      16.6457      0.61795
      16.4456     0.634638
      16.2454     0.651379
      16.0453     0.668146
      15.8452     0.684911
       15.645     0.701644
      15.4449     0.718314
      15.2448     0.734888
      15.0446     0.751333
      14.8445     0.767614
      14.6443     0.783696
      14.4442     0.799541
      14.2441     0.815111
      14.0439     0.830364
      13.8438     0.845258
      13.6437     0.859751
      13.4435     0.873798
      13.2434     0.887355
      13.0432     0.900376
      12.8431     0.912815
       12.643     0.924624
      12.4428     0.935754
      12.2427     0.946157
      12.0426     0.955781
      11.8424     0.964578
      11.6423     0.972501
      11.4421     0.979508
       11.242     0.985555
      11.0419     0.990602
      10.8417     0.994607
      10.6416     0.997533
      10.4415     0.999341
      10.2413            1
      10.0412     0.999479
      9.84105     0.997754
      9.64091     0.994801
      9.44077     0.990598
      9.24063     0.985121
       9.0405     0.978351
      8.84036     0.970266
      8.64022     0.960844
      8.44008     0.950069
      8.23995     0.937935
      8.03981     0.924445
      7.83967      0.90961
      7.63953     0.893449
       7.4394     0.875986
      7.23926     0.857253
      7.03912     0.837287
      6.83898     0.816134
      6.63885     0.793851
      6.43871     0.770503
      6.23857     0.746148
      6.03843     0.720814
       5.8383     0.694474
      5.63816     0.667053
      5.43802     0.638531
      5.23788     0.609061
      5.03775     0.578925
      4.83761     0.548392
      4.63747     0.517677
      4.43733     0.486934
       4.2372     0.456283
      4.03706     0.425834
      3.83692     0.395683
      3.63678     0.365906
      3.43665     0.336565
      3.23651      0.30772
      3.03637     0.279421
      2.83623     0.251654
       2.6361     0.224313
      2.43596     0.197273
      2.23582     0.170616
      2.03568     0.144716
      1.83555     0.120014
      1.63541    0.0968874
      1.43527    0.0757393
      1.23513    0.0569898
        1.035     0.040907
     0.834859    0.0275254
     0.634722    0.0166686
     0.434584   0.00805785
     0.234447   0.00194386
    0.0343093  2.05738e-05
    -0.165828  1.13209e-05
    -0.365966  8.78213e-06
    -0.566103  6.84731e-06
    -0.766241  5.29515e-06
    -0.966378  3.92458e-06
     -1.16652  2.61112e-06
     -1.36665   1.4416e-06
     -1.56679  6.42176e-07
     -1.76693  2.39136e-07
     -1.96707  7.82238e-08
      -2.1672  2.30813e-08
     -2.36734  6.15294e-09
     -2.56748  1.45781e-09
     -2.76762  2.96833e-10
     -2.96775  4.89314e-11
     -3.16789  5.81535e-12
     -3.36803  3.74397e-13
     -3.56817   2.7644e-15

